#Telluric Emission lines in JH spectra with relative intensities
  10015.555    2.97897  
  10289.457    4.18211  
   10375.72    3.56101  -1
  10421.218    3.31117  -1
  10471.823    2.	-1 #Added from Miradas list
  10834.289    4.07423  
   10926.43    2.70416	-1
   10975.33    3.12578	-1
  11029.814    2.44688	-1 
  11090.019    1.66264	-1
   11318.3	3.	-1
   11439.94    3.83333  
  11451.607	1.	-1 #Added from Miradas list
  11538.791    2.42188  
  11591.684    2.64842  
  11627.848	1.	-1 #Added from Miradas list
  11650.746    2.02537  
  11696.35	1.	-1 #Added from Miradas list
  11716.151	1.5	-1
#  12004.6	4.	-1
#  12030.889     3.
#  12055.880     1.	-1
  12122.64     4.72417  
  12229.294    2.87977  
  12286.988    3.32675  
  12351.597    2.57513  
  12423.347	2.	-1
#  12682.442	4.
  12685.783	4.	-1 #Added from Miradas list
#  12774.2	5.	-1
  12782.565	3.	-1 #Added from Miradas list
  12806.980	4.	-1 #Added from Miradas list
  12905.711    6.38234  
  12985.650     1.5
  13021.635    4.72592  
  13052.740	2.
  13085.264     5.5066  
  13127.822	2.	-1
  13156.793    3.90462  
  13210.869    2. 
  13236.516    3.15343  
  13324.683	1.	-1
  13421.535	1.	-1
  13985.895	2.
  14022.226    4.30025  
  14134.002    5.
  14162.960    4.	-1
  14186.057    7.	-1
  14356.719    5.69217  
  14518.961    12.5363  
  14563.982    5.24218  
  14604.833    12.2399  
  14698.437    8.28759  
  14833.093    8.66962  
  14887.699    12.
  14931.883    4.34645  
   15055.55    38.9451	-1
   15187.14    7.59179  
  15240.954    25.4066  
  15287.789    10.1357  
  15332.402    27.3271  
  15395.334    8.47759  
  15432.156     19.523  
  15543.543	14.00	-1
  15597.631    12.1962  
  15631.443    3.68279  
  15654.953    18.9755  -1
  15833.272    49.1758  -1 
  15972.596    10.6325  
  16030.831    35.3052  
  16079.753     14.131	-1
  16128.608    39.2233  
  16194.615    12.0016	-1
  16235.376    28.8632  
  16315.515     8.0273	-1  
   16350.65    16.5773
  16388.492    8.21288	-1
  16442.155     17.708	-1
  16477.318    12.2353	-1
  16502.365    18.2988	-1
  16553.814    7.16366	-1
   16692.38    53.7916	-1 
  16840.481    9.81644	-1 
  16903.679    39.3773  
  16955.078    15.7371	-1 
  17008.757    43.1152  
  17078.369    13.2075	-1
  17123.659    31.1025  
  17210.319     9.5184  
  17247.926     18.442  
  17386.695    21.2992  
  17449.967    17.3469  
  17653.222    48.3627	-1
  17811.475    7.61243	-1
  17880.298     30.016  
  17993.962    32.8548	-1 
  18067.934    9.07408	-1
  18117.965    20.3084	-1
  18253.479    8.73957  
  18523.479    5.11331  
